LabVIEW Measurement	
Writer_Version	2
Reader_Version	2
Separator	Tab
Decimal_Separator	.
Multi_Headings	No
X_Columns	No
Time_Pref	Absolute
Operator	mechlab
Description	Data file
Date	2022/03/16
Time	20:59:37.9018001556396484375
***End_of_Header***	
	
Channels	6						
Samples	1	1	1	1	1	1	
Date	2022/03/16	2022/03/16	2022/03/16	2022/03/16	2022/03/16	2022/03/16	
Time	20:59:37.9018001556396484375	20:59:38.1097998619079589844	20:59:38.3187999725341796875	20:59:38.5278000831604003906	20:59:38.7368001937866210938	20:59:38.9428000450134277344	
X_Dimension	Time	Time	Time	Time	Time	Time	
X0	0.0000000000000000E+0	0.0000000000000000E+0	0.0000000000000000E+0	0.0000000000000000E+0	0.0000000000000000E+0	0.0000000000000000E+0	
Delta_X	1.000000	1.000000	1.000000	1.000000	1.000000	1.000000	
***End_of_Header***							
X_Value	Untitled	Untitled 1	Untitled 2	Untitled 3	Untitled 4	Untitled 5	Comment
	0.000000	291.798061	-5.191086	61.242038	6.741770E-6	1.731775E-5
	1.046000	294.676989	-5.193095	55.314826	7.351567E-6	1.851218E-5
	2.104000	302.816241	-5.185462	49.555562	6.131975E-6	1.791496E-5
	3.161000	312.196911	-5.188949	43.646041	4.302597E-6	1.851218E-5
	4.206000	308.582149	-5.188836	35.796270	4.302597E-6	1.791496E-5
	5.251000	316.355899	-5.187143	35.793584	7.351567E-6	1.970662E-5
	6.309000	319.650243	-5.185021	35.798930	6.741770E-6	1.910940E-5
	7.353000	322.067062	-5.192393	35.811341	4.302597E-6	1.851218E-5
	8.398000	321.431057	-5.186526	35.792910	6.131975E-6	2.090107E-5
	9.443000	336.859408	-5.185643	35.797532	4.912388E-6	1.910940E-5
	10.486000	352.075220	-5.181953	35.804968	4.912388E-6	2.090107E-5
	11.532000	372.755844	-5.183766	35.803171	4.302597E-6	2.149829E-5
	12.588000	381.772622	-5.179128	35.797977	5.522180E-6	2.328998E-5
	13.630000	381.951348	-5.173168	35.803219	5.522180E-6	2.567891E-5
	14.674000	383.538944	-5.158662	35.808773	4.912388E-6	2.448444E-5
	15.718000	386.493549	-5.148610	35.804516	4.912388E-6	2.269275E-5
	16.763000	394.315604	-5.122677	35.795315	6.131975E-6	2.448444E-5
	17.806000	393.070967	-5.100134	35.794922	5.522180E-6	2.448444E-5
	18.847000	387.714035	-5.071781	35.791235	6.741770E-6	2.328998E-5
	19.891000	403.736527	-5.052529	35.790488	6.131975E-6	2.328998E-5
	20.934000	394.109506	-5.033492	35.788272	5.522180E-6	2.567891E-5
	21.980000	402.633582	-5.004327	35.788947	6.741770E-6	2.388721E-5
	23.023000	402.256809	-4.983008	35.792127	4.912388E-6	2.567891E-5
	24.067000	389.074602	-4.963052	35.787804	2.473233E-6	2.508168E-5
	25.114000	403.375856	-4.951448	35.789055	5.522180E-6	2.328998E-5
	26.153000	404.446598	-4.931755	35.793381	3.083020E-6	2.508168E-5
	27.197000	421.514070	-4.916531	35.796866	3.083020E-6	2.627615E-5
	28.239000	425.690771	-4.897086	35.803414	2.473233E-6	2.747063E-5
	29.300000	462.184568	-4.890331	35.815626	1.253666E-6	2.747063E-5
	30.342000	484.228980	-4.874896	35.832661	6.438840E-7	3.224861E-5
	31.385000	540.322999	-4.863774	35.833869	3.410401E-8	3.463764E-5
	32.429000	591.852274	-4.862739	35.848586	-4.844079E-6	3.881849E-5
	33.471000	650.564378	-4.854019	35.855823	-2.405000E-6	4.299942E-5
	34.515000	701.460869	-4.853843	35.866642	-2.405000E-6	4.299942E-5
	35.556000	728.553066	-4.848385	35.868866	-6.063610E-6	4.598585E-5
	36.598000	754.218680	-4.849260	35.880096	-4.844079E-6	4.718043E-5
	37.650000	763.361049	-4.841100	35.879729	-7.283133E-6	4.718043E-5
	38.696000	787.519573	-4.843503	35.878894	-6.063610E-6	5.136150E-5
	39.739000	800.218738	-4.842706	35.885748	-6.673372E-6	4.956960E-5
	40.782000	814.539314	-4.840905	35.882079	-7.283133E-6	5.136150E-5
	41.825000	825.240297	-4.837605	35.883122	-7.283133E-6	5.076420E-5
	42.883000	843.758504	-4.842852	35.886895	-7.892893E-6	5.315342E-5
	43.942000	860.342935	-4.835673	35.880346	-8.502651E-6	5.434803E-5
	44.982000	865.677325	-4.836540	35.886622	-9.112407E-6	5.554266E-5
	46.025000	890.167538	-4.833540	35.880290	-1.033192E-5	5.434803E-5
	47.068000	915.243841	-4.838072	35.880499	-8.502651E-6	5.733460E-5
	48.117000	926.991414	-4.833154	35.880860	-7.892893E-6	5.852924E-5
	49.160000	952.041955	-4.834264	35.888239	-9.112407E-6	6.211319E-5
	50.217000	985.777586	-4.828705	35.887115	-1.033192E-5	6.509986E-5
	51.260000	1012.520383	-4.827154	35.882515	-4.874321E-5	0.000115
	52.302000	1516.888347	-4.616398	35.888001	-1.795227E-6	2.567891E-5
	53.345000	532.563739	-4.668095	35.887775	3.083020E-6	2.090107E-5
	54.387000	505.508576	-4.666976	35.885627	3.083020E-6	2.388721E-5
	55.432000	524.030003	-4.668414	35.887118	4.912388E-6	2.388721E-5
	56.476000	537.271786	-4.673899	35.888300	1.253666E-6	2.508168E-5
	57.519000	544.390210	-4.670641	35.879488	2.473233E-6	2.627615E-5
	58.562000	557.419454	-4.671781	35.892506	1.863449E-6	2.627615E-5
	59.604000	560.861931	-4.672796	35.888880	1.863449E-6	2.866512E-5
	60.647000	562.694269	-4.669442	35.887648	1.253666E-6	2.926236E-5
	61.694000	585.814253	-4.669537	35.885044	1.253666E-6	3.284587E-5
	62.738000	646.255647	-4.661640	35.889730	-2.405000E-6	4.419399E-5
	63.786000	831.981948	-4.650553	35.885061	-5.453845E-6	5.613997E-5
	64.831000	977.327577	-4.650008	35.882460	-9.112407E-6	6.390519E-5
	65.872000	1085.020107	-4.647734	35.893817	-1.399040E-5	7.107331E-5
	66.918000	1166.454493	-4.641027	35.897148	-1.338066E-5	7.824164E-5
	67.964000	1302.686736	-4.629982	35.893348	-1.886830E-5	9.317639E-5
	69.011000	1536.641531	-4.619080	35.889617	-2.801408E-5	0.000117
	70.055000	1874.340800	-4.594577	35.894387	-3.228199E-5	0.000133
	71.100000	2066.345039	-4.592811	35.902909	-3.715951E-5	0.000142
	72.145000	2180.397622	-4.589162	35.902040	-4.020791E-5	0.000147
	73.195000	2246.149256	-4.585747	35.903980	-4.142725E-5	0.000150
	74.239000	2304.669757	-4.572903	35.901128	-4.386593E-5	0.000157
	75.287000	2388.459779	-4.567240	35.903341	-5.301075E-5	0.000192
	76.330000	2955.809967	-4.517839	35.905663	-7.068973E-5	0.000235
	77.375000	3459.711032	-4.445289	35.913586	-7.678562E-5	0.000254
	78.417000	3725.501522	-4.400881	35.910007	-8.227179E-5	0.000266
	79.463000	3850.978053	-4.376988	35.915821	-8.471005E-5	0.000268
	80.508000	3886.502552	-4.367911	35.924099	-8.288136E-5	0.000263
	81.573000	3802.503204	-4.367612	35.924007	-2.862379E-5	6.091854E-5
	82.622000	969.814669	-4.506844	35.917971	4.302597E-6	1.015127E-5
	83.666000	411.661630	-4.580423	35.908282	4.302597E-6	1.373448E-5
	84.711000	421.253228	-4.611221	35.887870	5.522180E-6	1.373448E-5
	85.757000	417.812361	-4.609106	35.859921	5.522180E-6	1.612332E-5
	86.800000	422.575152	-4.606941	35.838350	5.522180E-6	1.731775E-5
	87.844000	431.108888	-4.602351	35.833753	6.131975E-6	1.851218E-5
	88.890000	436.369212	-4.597605	35.828468	7.351567E-6	1.970662E-5
	89.940000	442.909596	-4.593910	35.838872	5.522180E-6	2.030384E-5
	90.983000	453.077623	-4.593566	35.839984	6.131975E-6	1.970662E-5
	92.035000	453.114656	-4.587802	35.848407	4.302597E-6	2.209552E-5
	93.076000	470.758558	-4.589434	35.844868	6.741770E-6	2.030384E-5
	94.118000	455.985534	-4.587943	35.844335	4.912388E-6	2.209552E-5
	95.163000	459.685633	-4.585189	35.839557	4.912388E-6	2.209552E-5
	96.218000	464.820366	-4.580868	35.842636	4.912388E-6	2.328998E-5
	97.261000	479.693219	-4.578421	35.845082	4.912388E-6	2.448444E-5
	98.304000	485.071083	-4.574869	35.840301	4.912388E-6	2.508168E-5
	99.348000	496.330784	-4.566022	35.835605	2.473233E-6	2.926236E-5
	100.392000	570.525984	-4.557469	35.833060	6.438840E-7	3.881849E-5
	101.433000	716.088981	-4.545837	35.837793	-4.234312E-6	4.956960E-5
	102.476000	896.485723	-4.532785	35.831064	-8.502651E-6	6.868391E-5
	103.517000	1117.989311	-4.520508	35.839186	-1.581962E-5	8.660498E-5
	104.562000	1371.323737	-4.509325	35.852700	-2.252665E-5	0.000103
	105.606000	1625.368236	-4.499244	35.857714	-2.801408E-5	0.000119
	106.650000	1805.289991	-4.487720	35.863167	-3.106259E-5	0.000126
	107.694000	1925.684910	-4.480714	35.878214	-3.228199E-5	0.000135
	108.737000	2056.402431	-4.470627	35.878217	-3.776919E-5	0.000153
	109.781000	2320.407256	-4.454846	35.891334	-4.752390E-5	0.000180
	110.823000	2654.276014	-4.434658	35.892532	-5.483967E-5	0.000194
	111.866000	2857.816906	-4.418532	35.901107	-5.849747E-5	0.000203
	112.907000	2969.048530	-4.414271	35.899676	-5.971672E-5	0.000206
	113.947000	3029.454506	-4.411897	35.907387	-6.154559E-5	0.000209
	114.992000	3080.252782	-4.409166	35.915576	-6.398406E-5	0.000213
	116.037000	3121.989196	-4.404957	35.917763	-6.337445E-5	0.000218
	117.078000	3231.293485	-4.398684	35.918122	-7.556645E-5	0.000267
	118.135000	3905.064236	-4.347465	35.920787	-9.385329E-5	0.000305
	119.189000	4347.340478	-4.296528	35.918286	-0.000101	0.000325
	120.233000	4577.464792	-4.264953	35.927574	-0.000106	0.000336
	121.276000	4729.870910	-4.237270	35.927295	-0.000108	0.000345
	122.323000	4810.675748	-4.223470	35.926424	-0.000106	0.000347
	123.380000	4829.108622	-4.217027	35.921854	-0.000110	0.000348
	124.424000	4829.810643	-4.208636	35.933713	-0.000110	0.000348
	125.473000	4843.768940	-4.205813	35.932019	-0.000109	0.000347
	126.517000	4845.486959	-4.204687	35.931486	-0.000110	0.000348
	127.560000	4861.754195	-4.203205	35.928920	-0.000111	0.000348
	128.602000	4865.182182	-4.197070	35.931953	-0.000110	0.000349
	129.644000	4865.344806	-4.195683	35.931549	-0.000111	0.000350
	130.686000	4861.593182	-4.197438	35.931457	-0.000112	0.000348
	131.731000	4873.893035	-4.189746	35.923777	-0.000108	0.000349
	132.775000	4873.614481	-4.193097	35.931082	-0.000110	0.000350
	133.823000	4875.706052	-4.192062	35.931926	-0.000109	0.000350
	134.869000	4883.202861	-4.188141	35.935312	-0.000112	0.000352
	135.915000	4896.013129	-4.188126	35.927279	-0.000112	0.000352
	136.970000	4917.199341	-4.186845	35.928794	-0.000112	0.000354
	138.016000	4929.254454	-4.183574	35.928791	-0.000112	0.000354
	139.055000	4947.051323	-4.180075	35.933977	-0.000113	0.000356
	140.111000	4985.490178	-4.180117	35.930277	-0.000112	0.000358
	141.157000	4989.570270	-4.177479	35.929630	-0.000113	0.000360
	142.200000	5006.550799	-4.173416	35.932745	-0.000115	0.000361
	143.247000	5035.485002	-4.169735	35.934961	-0.000118	0.000368
	144.299000	5119.640542	-4.164748	35.934249	-0.000118	0.000372
	145.339000	5169.092750	-4.159869	35.928949	-0.000119	0.000376
	146.382000	5200.814105	-4.156165	35.930116	-0.000118	0.000377
	147.426000	5225.075684	-4.149947	35.935771	-0.000120	0.000380
	148.470000	5251.486799	-4.146526	35.935678	-0.000120	0.000381
	149.512000	5271.125668	-4.143149	35.927453	-0.000122	0.000383
	150.572000	5300.349697	-4.141090	35.927891	-0.000122	0.000387
	151.616000	5329.547963	-4.137595	35.934942	-0.000124	0.000389
	152.657000	5366.115838	-4.131760	35.934745	-0.000126	0.000393
	153.701000	5397.389574	-4.125977	35.935090	-0.000128	0.000396
	154.747000	5441.560527	-4.123726	35.932341	-0.000127	0.000398
	155.793000	5485.665464	-4.116781	35.927949	-0.000128	0.000402
	156.837000	5514.570685	-4.113370	35.932072	-0.000132	0.000404
	157.881000	5553.336401	-4.109867	35.930646	-0.000130	0.000408
	158.927000	5613.674764	-4.101022	35.939352	-0.000134	0.000413
	159.971000	5662.827488	-4.093916	35.934357	-0.000135	0.000420
	161.012000	5743.638774	-4.083574	35.935739	-0.000193	0.000653
	162.057000	7154.829474	-3.873488	35.934988	-0.000132	0.000419
	163.112000	4713.920871	-3.936816	35.938859	-0.000109	0.000375
	164.158000	4234.368283	-3.954795	35.934996	-0.000107	0.000366
	165.201000	4153.687431	-3.954039	35.943263	-0.000106	0.000366
	166.248000	4134.542876	-3.957187	35.938957	-0.000107	0.000366
	167.294000	4142.954243	-3.950298	35.932167	-0.000106	0.000367
	168.336000	4162.562517	-3.956150	35.932760	-0.000108	0.000369
	169.381000	4175.960485	-3.955427	35.937093	-0.000109	0.000376
	170.425000	4302.073025	-3.944635	35.930379	-0.000118	0.000408
	171.470000	4704.218172	-3.934001	35.932915	-0.000126	0.000424
	172.513000	4889.018683	-3.932949	35.934864	-0.000130	0.000429
	173.556000	4999.876772	-3.928693	35.935623	-0.000131	0.000440
	174.600000	5120.484255	-3.922076	35.941223	-0.000136	0.000462
	175.643000	5470.417444	-3.909057	35.939125	-0.000149	0.000499
	176.685000	5904.151962	-3.895281	35.945517	-0.000159	0.000515
	177.728000	6097.635979	-3.887110	35.946483	-0.000160	0.000523
	178.772000	6201.459382	-3.884800	35.951546	-0.000162	0.000530
	179.817000	6301.226846	-3.878650	35.948560	-0.000171	0.000590
	180.860000	8289.287310	-3.679334	35.955586	-0.000232	0.000708
	181.903000	6968.541141	-3.739958	35.952301	-0.000191	0.000624
	182.955000	6099.754922	-3.764217	35.957455	-0.000182	0.000605
	184.002000	5893.125727	-3.770293	35.950010	-0.000181	0.000598
	185.048000	5833.130323	-3.772524	35.954705	-0.000178	0.000595
	186.100000	5824.955645	-3.769923	35.951011	-0.000182	0.000596
	187.146000	5819.120499	-3.768605	35.951974	-0.000182	0.000596
	188.210000	5814.449485	-3.772634	35.943772	-0.000180	0.000595
	189.256000	5823.540332	-3.770868	35.948557	-0.000180	0.000596
	190.312000	5810.947432	-3.766617	35.947433	-0.000180	0.000597
	191.353000	5829.275649	-3.771102	35.946192	-0.000181	0.000596
	192.403000	5829.897163	-3.770498	35.956115	-0.000180	0.000597
	193.447000	5846.589478	-3.770211	35.951246	-0.000181	0.000597
	194.493000	5863.901697	-3.771933	35.944224	-0.000182	0.000608
	195.549000	6069.220238	-3.762060	35.950254	-0.000201	0.000666
	196.594000	6801.394156	-3.737985	35.950230	-0.000215	0.000694
	197.639000	7121.419070	-3.726056	35.958986	-0.000218	0.000703
	198.689000	7249.858303	-3.719519	35.958310	-0.000220	0.000711
	199.734000	7323.625244	-3.720294	35.960551	-0.000224	0.000720
	200.787000	7473.711199	-3.710267	35.960910	-0.000238	0.000779
	201.831000	8284.751524	-3.683372	35.964467	-0.000263	0.000845
	202.874000	8949.026068	-3.656251	35.967820	-0.000273	0.000863
	203.917000	9098.864101	-3.643419	35.976977	-0.000275	0.000873
	204.965000	9199.344899	-3.632729	35.972806	-0.000279	0.000882
	206.006000	9241.973361	-3.622046	35.982390	-0.000282	0.000888
	207.052000	9299.524603	-3.611582	35.980564	-0.000285	0.000896
	208.096000	9322.536727	-3.610804	35.983952	-0.000286	0.000899
	209.142000	9339.786160	-3.600543	35.984159	-0.000290	0.000904
	210.186000	9361.329836	-3.599379	35.988412	-0.000292	0.000909
	211.231000	9386.885982	-3.599305	35.987368	-0.000291	0.000912
	212.275000	9420.270630	-3.590428	35.985306	-0.000294	0.000918
	213.318000	9447.541576	-3.588213	35.993048	-0.000296	0.000921
	214.362000	9476.611049	-3.586047	35.990389	-0.000298	0.000928
	215.408000	9490.556473	-3.580357	35.985259	-0.000299	0.000935
	216.455000	9543.824745	-3.577407	35.990259	-0.000302	0.000946
	217.508000	9618.008739	-3.569916	35.995376	-0.000312	0.000978
	218.554000	9808.721814	-3.554957	35.997205	-0.000324	0.001016
	219.605000	9958.210469	-3.536930	35.988895	-0.000334	0.001043
	220.648000	10041.649557	-3.525129	35.997060	-0.000340	0.001066
	221.698000	10102.780150	-3.512447	35.994249	-0.000347	0.001087
	222.740000	10141.502418	-3.501953	35.998195	-0.000353	0.001100
	223.801000	10188.970970	-3.498610	35.998430	-0.000358	0.001115
	224.844000	10222.943324	-3.490347	36.010511	-0.000364	0.001131
	225.895000	10252.874226	-3.481540	35.997553	-0.000369	0.001143
	226.939000	10280.613727	-3.474416	36.003420	-0.000372	0.001158
	227.995000	10322.772037	-3.467994	36.000834	-0.000378	0.001179
	229.037000	10398.751349	-3.457991	36.007880	-0.000394	0.001228
	230.081000	10552.091479	-3.446982	36.011519	-0.000413	0.001280
	231.127000	10639.861855	-3.426658	36.014680	-0.000426	0.001320
	232.177000	10702.964877	-3.412503	36.018562	-0.000437	0.001355
	233.221000	10733.652548	-3.398260	36.033992	-0.000448	0.001386
	234.280000	10772.522954	-3.394325	36.042049	-0.000461	0.001414
	235.324000	10791.957352	-3.385433	36.042249	-0.000469	0.001438
	236.383000	10824.836426	-3.377977	36.048596	-0.000476	0.001460
	237.425000	10841.250200	-3.371257	36.052641	-0.000486	0.001481
	238.467000	10859.794191	-3.364252	36.056713	-0.000494	0.001503
	239.513000	10880.246198	-3.354902	36.061022	-0.000500	0.001524
	240.568000	10895.090086	-3.349019	36.061067	-0.000507	0.001544
	241.612000	10918.962032	-3.343985	36.061286	-0.000515	0.001563
	242.655000	10933.627194	-3.337949	36.065244	-0.000521	0.001584
	243.701000	10946.315104	-3.331904	36.068659	-0.000533	0.001606
	244.745000	10975.316958	-3.327351	36.066632	-0.000540	0.001630
	245.801000	11006.276745	-3.318237	36.062442	-0.000554	0.001682
	246.844000	11101.923938	-3.307358	36.065638	-0.000592	0.001794
	247.894000	11217.221292	-3.277244	36.069361	-0.000634	0.001915
	248.936000	11256.146447	-3.253066	36.070313	-0.000672	0.002022
	249.980000	11285.061357	-3.231788	36.073652	-0.000713	0.002122
	251.027000	11309.289146	-3.217030	36.079613	-0.000746	0.002213
	252.074000	11325.405047	-3.203181	36.084577	-0.000779	0.002296
	253.118000	11345.744346	-3.181252	36.100052	-0.000810	0.002374
	254.162000	11357.744726	-3.168796	36.109130	-0.000839	0.002444
	255.217000	11367.473197	-3.160097	36.113003	-0.000863	0.002513
	256.262000	11361.679911	-3.144188	36.126596	-0.000889	0.002574
	257.304000	11372.596666	-3.134058	36.132254	-0.000910	0.002629
	258.349000	11374.659256	-3.124277	36.140913	-0.000933	0.002681
	259.407000	11368.460214	-3.115641	36.144309	-0.000954	0.002729
	260.450000	11373.482244	-3.108528	36.145823	-0.000969	0.002772
	261.503000	11377.652508	-3.102331	36.153448	-0.000988	0.002813
	262.549000	11378.180635	-3.094006	36.151089	-0.001003	0.002852
	263.594000	11386.049393	-3.087869	36.153632	-0.001017	0.002885
	264.635000	11373.454871	-3.082493	36.162863	-0.001034	0.002919
	265.691000	11365.563570	-3.075051	36.166363	-0.001048	0.002949
	266.735000	11367.825819	-3.070529	36.168268	-0.001055	0.002971
	267.781000	11363.307763	-3.067087	36.170830	-0.001068	0.002993
	268.825000	11361.480253	-3.061254	36.173488	-0.001078	0.003016
	269.869000	11352.201011	-3.056076	36.176173	-0.001090	0.003039
	270.914000	11351.175352	-3.057425	36.184460	-0.001097	0.003064
	271.958000	11367.479638	-3.048057	36.191145	-0.001107	0.003084
	273.002000	11370.637124	-3.048080	36.191054	-0.001117	0.003108
	274.045000	11361.422288	-3.041946	36.193390	-0.001127	0.003131
	275.088000	11376.692864	-3.036290	36.193462	-0.001135	0.003157
	276.134000	11380.098312	-3.035598	36.201903	-0.001148	0.003182
	277.176000	11377.631576	-3.028546	36.201877	-0.001159	0.003208
	278.221000	11387.347166	-3.023528	36.198238	-0.001169	0.003234
	279.266000	11386.033292	-3.024893	36.206983	-0.001184	0.003263
	280.310000	11394.853644	-3.015771	36.208823	-0.001195	0.003290
	281.355000	11391.064982	-3.008321	36.209693	-0.001207	0.003320
	282.397000	11395.222366	-3.005807	36.220755	-0.001219	0.003349
	283.441000	11400.890061	-2.998279	36.215750	-0.001232	0.003378
	284.489000	11408.111544	-2.993738	36.213651	-0.001244	0.003414
	285.529000	11426.043683	-2.989414	36.216029	-0.001259	0.003447
	286.571000	11422.791198	-2.982439	36.213514	-0.001274	0.003485
	287.615000	11424.594556	-2.979320	36.219072	-0.001289	0.003521
	288.659000	11440.631560	-2.970933	36.222888	-0.001304	0.003561
	289.703000	11441.599254	-2.968481	36.223307	-0.001318	0.003603
	290.746000	11450.550028	-2.960388	36.219758	-0.001338	0.003645
	291.787000	11460.117485	-2.954734	36.224115	-0.001358	0.003686
	292.832000	11447.701688	-2.944399	36.228826	-0.001374	0.003733
	293.878000	11471.506012	-2.937778	36.221510	-0.001394	0.003777
	294.920000	11465.896281	-2.935457	36.226450	-0.001411	0.003827
	295.965000	11482.200568	-2.922748	36.228994	-0.001433	0.003879
	297.009000	11480.706358	-2.921066	36.232431	-0.001451	0.003935
	298.056000	11485.556102	-2.911126	36.234639	-0.001475	0.003991
	299.098000	11505.634559	-2.904505	36.241245	-0.001498	0.004051
	300.138000	11502.541478	-2.891981	36.247966	-0.001525	0.004119
	301.182000	11523.086877	-2.885655	36.261556	-0.001551	0.004187
	302.232000	11515.623874	-2.876549	36.272565	-0.001581	0.004258
	303.276000	11525.349125	-2.863136	36.274178	-0.001610	0.004336
	304.329000	11544.015489	-2.859252	36.285192	-0.001644	0.004421
	305.371000	11550.829605	-2.843402	36.291631	-0.001673	0.004506
	306.414000	11553.932347	-2.827722	36.302282	-0.001708	0.004592
	307.477000	11553.811587	-2.817839	36.310086	-0.001744	0.004682
	308.521000	11561.493569	-2.801509	36.320370	-0.001777	0.004766
	309.563000	11581.230677	-2.794326	36.323294	-0.001815	0.004861
	310.612000	11590.909235	-2.743540	36.330893	-0.002637	0.007007
	311.659000	9669.349675	-2.565930	36.381837	-0.002590	0.006869
	312.703000	8783.817642	-2.583895	36.430764	-0.002608	0.006938
	313.747000	10048.639176	-2.532700	36.476231	-0.002644	0.006998
	314.801000	10823.240777	-2.513393	36.518438	-0.002664	0.007067
	315.846000	11698.060899	-2.437837	36.548524	-0.002779	0.004054
	316.890000	11957.928004	-2.273451	36.585494	-0.001394	0.003299
	317.933000	11535.806991	-2.262892	36.609904	-0.001300	0.003157
	318.981000	11458.558869	-2.265939	36.643576	-0.001258	0.003081
	320.026000	11469.709095	-2.255376	36.677198	-0.001270	0.003212
	321.070000	11805.710097	-2.013238	36.730141	-0.001129	0.003007
	322.115000	11315.679795	-2.018612	36.769827	-0.001082	0.002922
	323.160000	11600.508900	-1.961376	36.802575	-0.001143	0.003175
	324.205000	12124.592104	-1.732630	36.867422	-0.000938	0.001863
	325.250000	11697.426502	-1.736212	36.943088	-0.000907	0.001746
	326.305000	11640.517678	-1.734401	36.980789	-0.000899	0.001756
	327.347000	12200.996523	-1.563143	37.031892	-0.000975	0.001745
	328.390000	11870.107689	-1.437594	37.108424	-0.000929	0.001649
	329.437000	11697.165659	-1.434071	37.159619	-0.000913	0.001598
	330.482000	11677.457534	-1.423792	37.201266	-0.000963	0.001714
	331.524000	12311.289586	-1.134425	37.267346	-0.000943	0.001627
	332.566000	11690.219510	-1.141999	37.332692	-0.000920	0.001576
	333.607000	11626.435385	-1.144254	37.374721	-0.000916	0.001624
	334.663000	12351.931162	-0.920432	37.434670	-0.000947	0.001611
	335.704000	11825.794996	-0.866650	37.513309	-0.000920	0.001553
	336.748000	11690.559251	-0.863827	37.564420	-0.000910	0.001518
	337.790000	12224.844328	-0.739546	37.615533	-0.000958	0.001598
	338.836000	11852.545880	-0.596765	37.684342	-0.000926	0.001528
	339.874000	11513.372897	-0.599198	37.736791	-0.000914	0.001500
	340.922000	12346.765831	-0.461218	37.777578	-0.000955	0.001558
	341.968000	11884.642432	-0.338056	37.849723	-0.000929	0.001493
	343.012000	11585.175523	-0.341799	37.912624	-0.000918	0.001464
	344.055000	12395.881579	-0.204622	37.957969	-0.000955	0.001520
	345.098000	11970.276177	-0.068865	38.031881	-0.000931	0.001458
	346.141000	11656.453244	-0.072662	38.098657	-0.000923	0.001426
	347.185000	12196.499407	0.030821	38.135730	-0.000955	0.001493
	348.225000	12118.605599	0.197184	38.211267	-0.000925	0.001436
	349.269000	11911.024594	0.195445	38.278572	-0.000917	0.001404
	350.314000	11928.100140	0.228995	38.315625	-0.000947	0.001493
	351.355000	12322.639473	0.474236	38.382672	-0.000926	0.001418
	352.399000	11786.323999	0.468841	38.442969	-0.000919	0.001385
	353.460000	11776.658322	0.476982	38.479858	-0.000943	0.001471
	354.504000	12433.496090	0.746284	38.538489	-0.000927	0.001405
	355.546000	12014.344129	0.743259	38.612355	-0.000922	0.001374
	356.590000	11990.617089	0.746109	38.654930	-0.000935	0.001442
	357.635000	12642.593872	1.029656	38.722424	-0.000930	0.001395
	358.678000	11943.636392	1.017727	38.795386	-0.000921	0.001360
	359.737000	11891.437227	1.017392	38.836036	-0.000928	0.001411
	360.780000	12672.806565	1.289273	38.897982	-0.000928	0.001372
	361.837000	11971.023282	1.286692	38.972843	-0.000921	0.001337
	362.882000	11905.305373	1.283760	39.024149	-0.000926	0.001380
	363.926000	12708.266709	1.548029	39.073134	-0.000927	0.001353
	364.970000	11953.492066	1.544598	39.147556	-0.000921	0.001319
	366.016000	11888.121947	1.547246	39.206259	-0.000926	0.001371
	367.058000	12711.820291	1.811366	39.269266	-0.000924	0.001320
	368.111000	11945.898640	1.803738	39.341405	-0.000921	0.001280
	369.156000	11880.776483	1.804741	39.391389	-0.000930	0.001325
	370.205000	12739.047782	2.069464	39.442676	-0.000929	0.001271
	371.248000	12214.130445	2.069528	39.517072	-0.000930	0.001241
	372.290000	12161.179342	2.068570	39.567143	-0.000933	0.001255
	373.334000	12724.706253	2.259796	39.609705	-0.000949	0.001266
	374.379000	12250.651669	2.388724	39.689419	-0.000942	0.001223
	375.421000	11419.675576	2.374233	39.739158	-0.000940	0.001200
	376.464000	11592.862343	2.455947	39.790399	-0.000802	0.001160
	377.524000	12171.757970	2.616516	39.872148	-0.000793	0.001117
	378.575000	11976.926059	2.616768	39.923862	-0.000791	0.001130
	379.620000	12787.070250	2.843746	39.983807	-0.000802	0.001099
	380.661000	12287.731610	2.863882	40.046880	-0.000807	0.001072
	381.704000	12209.095533	2.867499	40.114336	-0.000810	0.001074
	382.747000	12763.544473	3.008467	40.157328	-0.000821	0.001095
	383.791000	12754.621070	3.225795	40.230708	-0.000819	0.001062
	384.843000	10958.231755	3.174807	40.293918	-0.000816	0.001046
	385.888000	10704.339937	3.202758	40.332813	-0.000827	0.001071
	386.945000	12360.200848	3.408516	40.400776	-0.000820	0.001052
	387.988000	12216.490912	3.408887	40.458432	-0.000817	0.001050
	389.030000	12800.843400	3.555295	40.507089	-0.000827	0.001068
	390.073000	12221.981494	3.671168	40.576841	-0.000820	0.001049
	391.118000	11850.290072	3.669960	40.649249	-0.000817	0.001045
	392.164000	12812.671499	3.844367	40.699468	-0.000825	0.001055
	393.208000	12324.323680	3.919590	40.776600	-0.000821	0.001039
	394.251000	12232.674441	3.923393	40.836526	-0.000819	0.001045
	395.295000	12816.864307	4.076479	40.874373	-0.000833	0.001053
	396.340000	12291.758575	4.210660	40.954494	-0.000823	0.001032
	397.397000	11385.529317	4.190404	41.023822	-0.000818	0.001023
	398.437000	12724.535581	4.362905	41.072811	-0.000826	0.001036
	399.493000	12329.078428	4.440005	41.156699	-0.000820	0.001022
	400.537000	12237.050805	4.439924	41.213003	-0.000818	0.001032
	401.581000	12837.834789	4.628575	41.255603	-0.000821	0.001028
	402.623000	11992.220790	4.706315	41.325929	-0.000810	0.001011
	403.674000	11633.726103	4.702429	41.384075	-0.000808	0.001026
	404.715000	12859.457379	4.943211	41.437261	-0.000810	0.001013
	405.762000	12318.540053	4.948226	41.508605	-0.000807	0.001002
	406.804000	12244.649061	4.949476	41.565892	-0.000810	0.001015
	407.846000	12813.466909	5.145900	41.623748	-0.000807	0.001011
	408.891000	12596.191209	5.288493	41.699956	-0.000797	0.000990
	409.952000	11521.697325	5.261079	41.763615	-0.000793	0.000983
	410.996000	11461.901522	5.278492	41.810785	-0.000799	0.000993
	412.039000	12385.491336	5.507587	41.888970	-0.000791	0.000979
	413.079000	12203.464870	5.504242	41.955245	-0.000791	0.000983
	414.121000	12832.766064	5.673738	41.995172	-0.000795	0.000981
	415.165000	12311.342722	5.759085	42.073727	-0.000790	0.000973
	416.209000	12182.927519	5.756387	42.141327	-0.000790	0.000977
	417.251000	12859.072555	5.953566	42.188619	-0.000794	0.000977
	418.296000	12313.770814	6.008169	42.257085	-0.000790	0.000968
	419.352000	12233.828912	6.010823	42.330486	-0.000791	0.000981
	420.397000	12837.040989	6.246357	42.386673	-0.000791	0.000971
	421.443000	12305.145288	6.267810	42.482416	-0.000788	0.000965
	422.486000	12236.292429	6.272364	42.532747	-0.000790	0.000973
	423.531000	12842.834278	6.499565	42.593310	-0.000790	0.000966
	424.578000	12212.930890	6.529694	42.674992	-0.000790	0.000960
	425.618000	12118.670004	6.530737	42.730675	-0.000790	0.000969
	426.664000	12832.814369	6.771806	42.780020	-0.000791	0.000963
	427.708000	12325.426627	6.792713	42.864314	-0.000787	0.000955
	428.752000	12256.554446	6.795811	42.924312	-0.000788	0.000959
	429.795000	12805.029768	6.940611	42.970878	-0.000789	0.000969
	430.838000	12412.905604	7.102697	43.067099	-0.000786	0.000956
	431.882000	10999.733133	7.068401	43.132365	-0.000783	0.000955
	432.932000	12711.174629	7.263657	43.199205	-0.000786	0.000960
	433.977000	12327.052869	7.311557	43.277965	-0.000786	0.000953
	435.021000	12254.377535	7.316679	43.349654	-0.000786	0.000959
	436.069000	12774.641568	7.474579	43.404052	-0.000785	0.000969
	437.123000	12735.009547	7.666222	43.484583	-0.000783	0.000957
	438.168000	11051.400941	7.616952	43.554088	-0.000785	0.000952
	439.212000	11078.984274	7.702755	43.613400	-0.000789	0.000963
	440.259000	12348.066823	7.857501	43.689099	-0.000788	0.000956
	441.304000	12245.990309	7.859309	43.755417	-0.000790	0.000952
	442.348000	12686.605478	7.948560	43.798888	-0.000793	0.000970
	443.389000	12691.265226	8.177888	43.873091	-0.000792	0.000961
	444.430000	11820.372041	8.160520	43.945993	-0.000791	0.000954
	445.475000	11769.072947	8.157816	44.010343	-0.000796	0.000972
	446.519000	12493.721815	8.414984	44.095373	-0.000795	0.000958
	447.562000	12206.965317	8.413852	44.171892	-0.000793	0.000954
	448.605000	12237.463001	8.418957	44.210492	-0.000797	0.000969
	449.650000	12698.671876	8.658650	44.285948	-0.000798	0.000969
	450.695000	12441.659506	8.780784	44.387445	-0.000793	0.000961
	451.742000	12199.082065	8.780945	44.472470	-0.000794	0.000954
	452.788000	12160.997396	8.782924	44.538655	-0.000794	0.000959
	453.830000	12738.468131	9.001248	44.620239	-0.000796	0.000960
	454.874000	11987.438670	9.056175	44.708355	-0.000795	0.000954
	455.918000	11883.412284	9.052440	44.752741	-0.000801	0.000964
	456.961000	12670.475080	9.311982	44.822478	-0.000796	0.000956
	458.003000	12107.671130	9.302393	44.912180	-0.000795	0.000949
	459.047000	12056.153054	9.303825	44.984986	-0.000800	0.000959
	460.090000	12621.932539	9.574062	45.054117	-0.000795	0.000952
	461.136000	12013.931933	9.573963	45.159435	-0.000795	0.000945
	462.176000	11943.980962	9.578184	45.220642	-0.000798	0.000951
	463.219000	12620.573579	9.825645	45.298772	-0.000792	0.000951
	464.266000	12098.694593	9.834682	45.395619	-0.000792	0.000944
	465.306000	12034.598094	9.833653	45.457985	-0.000793	0.000950
	466.351000	12555.330651	10.028997	45.523963	-0.000791	0.000957
	467.392000	11888.434315	10.130949	45.627373	-0.000786	0.000948
	468.446000	11455.675106	10.125298	45.706458	-0.000787	0.000944
	469.487000	12413.432123	10.284405	45.766906	-0.000784	0.000953
	470.534000	12020.580205	10.373181	45.874090	-0.000783	0.000947
	471.579000	11940.210011	10.376159	45.957181	-0.000783	0.000946
	472.636000	12417.315779	10.495127	46.012333	-0.000780	0.000957
	473.681000	12278.370249	10.730970	46.127058	-0.000774	0.000956
	474.738000	11103.522808	10.702696	46.233706	-0.000774	0.000951
	475.786000	10882.022184	10.693977	46.307189	-0.000781	0.000956
	476.839000	11974.200091	10.940328	46.410106	-0.000773	0.000957
	477.882000	11710.051618	10.943820	46.507789	-0.000777	0.000952
	478.926000	11782.082887	10.956415	46.561274	-0.000776	0.000956
	479.969000	11962.885629	11.203015	46.645076	-0.000769	0.000962
	481.026000	11087.068780	11.264965	46.754780	-0.000774	0.000957
	482.069000	10638.539929	11.253570	46.835071	-0.000774	0.000955
	483.112000	11781.171547	11.461769	46.922607	-0.000768	0.000959
	484.156000	11151.553309	11.496540	47.022352	-0.000773	0.000956
	485.201000	11234.763776	11.505355	47.101784	-0.000775	0.000951
	486.254000	11334.363870	11.592884	47.157443	-0.000771	0.000955
	487.302000	10933.445248	11.778191	47.235576	-0.000769	0.000956
	488.345000	10390.418872	11.965183	47.347459	-0.000766	0.000954
	489.395000	6795.998582	11.834121	47.433041	-0.000769	0.000955
	490.438000	9997.998650	12.070591	47.539447	-0.000767	0.000953
	491.496000	9192.856034	12.141294	47.658951	-0.000771	0.000950
	492.540000	9122.982391	12.142528	47.744525	-0.000773	0.000947
	493.584000	9195.272854	12.157999	47.798403	-0.000774	0.000945
	494.626000	8014.376830	12.449167	47.892587	-0.000763	0.000947
	495.691000	3600.261683	12.382275	47.982489	-0.000766	0.000948
	496.737000	5540.067245	12.570485	48.078380	-0.000762	0.000946
	497.788000	1938.197300	12.608624	48.199106	-0.000765	0.000945
	498.837000	2587.691937	12.701070	48.328485	-0.000768	0.000942
	499.896000	1057.035893	12.869643	48.463668	-0.000770	0.000938
	500.940000	905.471908	12.829774	48.586204	-0.000773	0.000935
	501.982000	724.389247	13.062166	48.716982	-0.000773	0.000933
	503.025000	532.707042	13.037778	48.823991	-0.000775	0.000932
	504.084000	556.398626	13.171077	48.940977	-0.000780	0.000930
	505.128000	256.614916	13.262546	49.056513	-0.000782	0.000927
	506.177000	253.808444	13.248253	49.158133	-0.000783	0.000927
	507.224000	253.583024	13.495384	49.258164	-0.000784	0.000924
	508.265000	249.483611	13.488305	49.338090	-0.000786	0.000922
	509.324000	254.254452	13.496328	49.385461	-0.000787	0.000920
	510.369000	255.104606	13.737038	49.443109	-0.000788	0.000920
	511.422000	252.579908	13.732449	49.510332	-0.000789	0.000918
	512.465000	254.225470	13.804066	49.521267	-0.000791	0.000917
	513.511000	248.849216	13.996681	49.591894	-0.000793	0.000915
	514.561000	259.584012	13.985086	49.563280	-0.000791	0.000913
	515.607000	253.165999	14.100531	49.581940	-0.000794	0.000913
	516.665000	254.703681	14.165576	49.613654	-0.000794	0.000912
